* Sea-Bird SBE37SM-RS232  Data File:
* FileName = C:\CE25007_recovery_data\16379_cal_dip_data.hex
* Software version SeatermV2 2.8.0.119
* Temperature SN = 16379
* Conductivity SN = 16379
* System UpLoad Time = May 14 2025 08:33:57
* sample interval = 10 seconds
* <ApplicationData>
* <Seaterm232>
* <SoftwareVersion>2.8.0.119</SoftwareVersion>
* <BuildDate>07-Nov-2018</BuildDate>
* </Seaterm232>
* </ApplicationData>
* <InstrumentState>
* <HardwareData DeviceType='SBE37SM-RS232' SerialNumber='03716379'>
*
*    <Manufacturer>Sea-Bird Electronics, Inc.</Manufacturer>
*
*    <FirmwareVersion>4.1</FirmwareVersion>
*
*    <FirmwareDate>Jan 17 2012 15:32:03</FirmwareDate>
*
*    <CommandSetVersion>1.0</CommandSetVersion>
*
*    <PCBAssembly>41660B</PCBAssembly>
*
*    <PCBSerialNum>126631</PCBSerialNum>
*
*    <PCBAssembly>41661D</PCBAssembly>
*
*    <PCBSerialNum>126616</PCBSerialNum>
*
*    <PCBAssembly>41720F</PCBAssembly>
*
*    <PCBSerialNum>126638</PCBSerialNum>
*
*    <MfgDate>23 Oct 2017</MfgDate>
*
*    <FirmwareLoader>SBE 37-232-V3 FirmwareLoader V 1.0</FirmwareLoader>
*
*    <InternalSensors>
*
*       <Sensor id='Temperature'>
*
*          <type>temperature-1</type>
*
*          <SerialNumber>03716379</SerialNumber>
*
*       </Sensor>
*
*       <Sensor id='Conductivity'>
*
*          <type>conductivity-1</type>
*
*          <SerialNumber>03716379</SerialNumber>
*
*       </Sensor>
*
*       <Sensor id='Pressure'>
*
*          <type>strain-0</type>
*
*          <SerialNumber>5231590</SerialNumber>
*
*       </Sensor>
*
*    </InternalSensors>
*
* </HardwareData>
* <StatusData DeviceType='SBE37SM-RS232' SerialNumber='03716379'>
*
*    <DateTime>2025-05-14T08:32:45</DateTime>
*
*    <EventSummary numEvents='2'/>
*
*    <Power>
*
*       <vMain>13.27</vMain>
*
*       <vLith> 3.00</vLith>
*
*    </Power>
*
*    <MemorySummary>
*
*       <Bytes>717375</Bytes>
*
*       <Samples>47825</Samples>
*
*       <SamplesFree>511415</SamplesFree>
*
*       <SampleLength>15</SampleLength>
*
*    </MemorySummary>
*
*    <AutonomousSampling>no, stop command</AutonomousSampling>
*
* </StatusData>
* <ConfigurationData DeviceType='SBE37SM-RS232' SerialNumber='03716379'>
*
*    <PressureInstalled>yes</PressureInstalled>
*
*    <PumpInstalled>yes</PumpInstalled>
*
*    <MinCondFreq>3300.0</MinCondFreq>
*
*    <SampleDataFormat>converted engineering alternate</SampleDataFormat>
*
*    <OutputSalinity>no</OutputSalinity>
*
*    <OutputSV>no</OutputSV>
*
*    <TxRealTime>no</TxRealTime>
*
*    <SampleInterval>10</SampleInterval>
*
*    <SyncMode>no</SyncMode>
*
* </ConfigurationData>
* <CalibrationCoefficients DeviceType='SBE37SM-RS232' SerialNumber='03716379'>
*
*    <Calibration format='TEMP1' id='Temperature'>
*
*       <SerialNum>03716379</SerialNum>
*
*       <CalDate>11-Apr-24</CalDate>
*
*       <A0>-7.630368e-05</A0>
*
*       <A1>2.984528e-04</A1>
*
*       <A2>-3.722704e-06</A2>
*
*       <A3>1.835454e-07</A3>
*
*    </Calibration>
*
*    <Calibration format='WBCOND0' id='Conductivity'>
*
*       <SerialNum>03716379</SerialNum>
*
*       <CalDate>11-Apr-24</CalDate>
*
*       <G>-9.984846e-01</G>
*
*       <H>1.272883e-01</H>
*
*       <I>-3.629264e-05</I>
*
*       <J>1.841512e-05</J>
*
*       <PCOR>-9.570000e-08</PCOR>
*
*       <TCOR>3.250000e-06</TCOR>
*
*       <WBOTC>-8.331831e-07</WBOTC>
*
*    </Calibration>
*
*    <Calibration format='STRAIN0' id='Pressure'>
*
*       <SerialNum>5231590</SerialNum>
*
*       <CalDate>15-Mar-24</CalDate>
*
*       <PA0>-2.484942e+00</PA0>
*
*       <PA1>3.022007e-02</PA1>
*
*       <PA2>2.211377e-09</PA2>
*
*       <PTCA0>5.230608e+05</PTCA0>
*
*       <PTCA1>-7.999838e+00</PTCA1>
*
*       <PTCA2>1.873288e-01</PTCA2>
*
*       <PTCB0>1.029536e+02</PTCB0>
*
*       <PTCB1>-4.850168e-03</PTCB1>
*
*       <PTCB2>0.000000e+00</PTCB2>
*
*       <PTEMPA0>-9.532836e+01</PTEMPA0>
*
*       <PTEMPA1>3.883124e-02</PTEMPA1>
*
*       <PTEMPA2>1.692320e-06</PTEMPA2>
*
*       <POFFSET>0.000000e+00</POFFSET>
*
*       <PRANGE>1.015300e+04</PRANGE>
*
*    </Calibration>
*
* </CalibrationCoefficients>
* <EventCounters DeviceType='SBE37SM-RS232' SerialNumber='03716379'>
*
*    <EventSummary numEvents='2'/>
*
*    <Event type='PON reset' count='2'/>
*
* </EventCounters></InstrumentState>
# nquan = 5
# nvalues = 1494                                  
# units = specified
# name 0 = tv290C: Temperature [ITS-90, deg C]
# name 1 = cond0S/m: Conductivity [S/m]
# name 2 = prdM: Pressure, Strain Gauge [db]
# name 3 = timeK: Time, Instrument [seconds]
# name 4 = flag:  0.000e+00
# span 0 =     2.8060,    18.1361                 
# span 1 =   0.000445,   4.092116                 
# span 2 =      0.647,   2414.963                 
# span 3 =  800473801,  800526221                 
# span 4 = 0.0000e+00, 0.0000e+00                 
# interval = seconds: 10
# start_time = May 13 2025 17:50:01 [Instrument's time stamp, first data scan]
# bad_flag = -9.990e-29
# <Sensors count="3" >
#   <sensor Channel="1" >
#     <!-- Count, Temperature -->
#     <TemperatureSensor SensorID="58" >
#       <SerialNumber>16379</SerialNumber>
#       <CalibrationDate>11-Apr-24</CalibrationDate>
#       <A0>-7.63036800e-005</A0>
#       <A1>2.98452800e-004</A1>
#       <A2>-3.72270400e-006</A2>
#       <A3>1.83545400e-007</A3>
#       <Slope>1.00000000</Slope>
#       <Offset>0.0000</Offset>
#     </TemperatureSensor>
#   </sensor>
#   <sensor Channel="2" >
#     <!-- Frequency 0, Conductivity -->
#     <ConductivitySensor SensorID="3" >
#       <SerialNumber>16379</SerialNumber>
#       <CalibrationDate>11-Apr-24</CalibrationDate>
#       <UseG_J>1</UseG_J>
#       <!-- Cell const and series R are applicable only for wide range sensors. -->
#       <SeriesR>0.0000</SeriesR>
#       <CellConst>2000.0000</CellConst>
#       <ConductivityType>1</ConductivityType>
#       <Coefficients equation="0" >
#         <A>0.00000000e+000</A>
#         <B>0.00000000e+000</B>
#         <C>0.00000000e+000</C>
#         <D>0.00000000e+000</D>
#         <M>0.0</M>
#         <CPcor>-9.57000000e-008</CPcor>
#       </Coefficients>
#       <Coefficients equation="1" >
#         <G>-9.98484600e-001</G>
#         <H>1.27288300e-001</H>
#         <I>-3.62926400e-005</I>
#         <J>1.84151200e-005</J>
#         <CPcor>-9.57000000e-008</CPcor>
#         <CTcor>3.2500e-006</CTcor>
#         <!-- WBOTC not applicable unless ConductivityType = 1. -->
#         <WBOTC>-8.33183100e-007</WBOTC>
#       </Coefficients>
#       <Slope>1.00000000</Slope>
#       <Offset>0.00000</Offset>
#     </ConductivitySensor>
#   </sensor>
#   <sensor Channel="3" >
#     <!-- Count, Pressure, Strain Gauge -->
#     <PressureSensor SensorID="46" >
#       <SerialNumber>5231590</SerialNumber>
#       <CalibrationDate>15-Mar-24</CalibrationDate>
#       <PA0>-2.48494200e+000</PA0>
#       <PA1>3.02200700e-002</PA1>
#       <PA2>2.21137700e-009</PA2>
#       <PTEMPA0>-9.53283600e+001</PTEMPA0>
#       <PTEMPA1>3.88312400e-002</PTEMPA1>
#       <PTEMPA2>1.69232000e-006</PTEMPA2>
#       <PTCA0>5.23060800e+005</PTCA0>
#       <PTCA1>-7.99983800e+000</PTCA1>
#       <PTCA2>1.87328800e-001</PTCA2>
#       <PTCB0>1.02953600e+002</PTCB0>
#       <PTCB1>-4.85016800e-003</PTCB1>
#       <PTCB2>0.00000000e+000</PTCB2>
#       <Offset>0.000000</Offset>
#     </PressureSensor>
#   </sensor>
# </Sensors>
# datcnv_date = May 19 2025 08:08:23, 7.26.7.129 [datcnv_vars = 4]
# datcnv_in = C:\CE25007_recovery_data\16379_cal_dip_data.hex C:\CE25007_recovery_data\16379_cal_dip_data.xmlcon
# datcnv_skipover = 0
# file_type = ascii
*END*
    18.1361   0.000503      0.744  800473801  0.000e+00
    17.4037   0.001578      0.888  800511301  0.000e+00
    17.2780   0.001564      1.012  800511311  0.000e+00
    17.2169   0.001550      1.012  800511321  0.000e+00
    17.1628   0.001542      1.012  800511331  0.000e+00
    17.1359   0.001531      1.052  800511341  0.000e+00
    17.0927   0.001522      1.094  800511351  0.000e+00
    17.0525   0.001511      1.198  800511361  0.000e+00
    17.0261   0.001503      1.155  800511371  0.000e+00
    17.0128   0.001494      1.113  800511381  0.000e+00
    17.0029   0.001480      0.967  800511391  0.000e+00
    16.9507   0.001472      1.134  800511401  0.000e+00
    16.9762   0.001467      1.112  800511411  0.000e+00
    16.9782   0.001455      1.195  800511421  0.000e+00
    16.9187   0.001450      1.112  800511431  0.000e+00
    16.8950   0.001441      1.173  800511441  0.000e+00
    16.8208   0.001430      1.132  800511451  0.000e+00
    16.7766   0.001422      1.236  800511461  0.000e+00
    16.7495   0.001414      1.214  800511471  0.000e+00
    16.6882   0.001408      1.130  800511481  0.000e+00
    16.6529   0.001403      1.212  800511491  0.000e+00
    16.6300   0.001394      1.275  800511501  0.000e+00
    16.6242   0.001389      1.274  800511511  0.000e+00
    16.5861   0.001383      1.294  800511521  0.000e+00
    16.5696   0.001380      1.274  800511531  0.000e+00
    16.5519   0.001375      1.210  800511541  0.000e+00
    16.5375   0.001369      1.357  800511551  0.000e+00
    16.5114   0.001361      1.292  800511561  0.000e+00
    16.4714   0.001355      1.208  800511571  0.000e+00
    16.4170   0.001350      1.250  800511581  0.000e+00
    16.4065   0.001344      1.269  800511591  0.000e+00
    16.3668   0.001330      1.292  800511601  0.000e+00
    16.3535   0.001328      1.205  800511611  0.000e+00
    16.3339   0.001319      1.225  800511621  0.000e+00
    16.2889   0.001314      1.268  800511631  0.000e+00
    16.2868   0.001308      1.308  800511641  0.000e+00
    16.2632   0.001300      1.308  800511651  0.000e+00
    16.2427   0.001291      1.287  800511661  0.000e+00
    16.2203   0.001283      1.307  800511671  0.000e+00
    16.1920   0.001278      1.264  800511681  0.000e+00
    16.1609   0.001269      1.180  800511691  0.000e+00
    16.1524   0.001261      1.326  800511701  0.000e+00
    16.1372   0.001252      1.220  800511711  0.000e+00
    16.1193   0.001244      1.262  800511721  0.000e+00
    16.1006   0.001239      1.304  800511731  0.000e+00
    16.0789   0.001230      1.116  800511741  0.000e+00
    16.0530   0.001219      1.261  800511751  0.000e+00
    16.0446   0.001211      1.343  800511761  0.000e+00
    16.0217   0.001202      1.278  800511771  0.000e+00
    16.0084   0.001194      1.301  800511781  0.000e+00
    15.9722   0.001191      1.195  800511791  0.000e+00
    15.9568   0.001183      1.193  800511801  0.000e+00
    15.9420   0.001177      1.235  800511811  0.000e+00
    15.9085   0.001172      1.296  800511821  0.000e+00
    15.9078   0.001163      1.214  800511831  0.000e+00
    15.8937   0.001158      1.234  800511841  0.000e+00
    15.8804   0.001149      1.213  800511851  0.000e+00
    15.8420   0.001133      1.232  800511861  0.000e+00
    15.8115   0.001127      1.230  800511871  0.000e+00
    15.8198   0.001124      1.230  800511881  0.000e+00
    15.8138   0.001119      1.189  800511891  0.000e+00
    15.7907   0.001116      1.229  800511901  0.000e+00
    15.7790   0.001110      1.208  800511911  0.000e+00
    15.7701   0.001108      1.187  800511921  0.000e+00
    15.7654   0.001102      1.229  800511931  0.000e+00
    15.7405   0.001094      1.165  800511941  0.000e+00
    15.7237   0.001091      1.144  800511951  0.000e+00
    15.6989   0.001085      1.227  800511961  0.000e+00
    15.6844   0.001080      1.225  800511971  0.000e+00
    15.6718   0.001077      1.370  800511981  0.000e+00
    15.6498   0.001074      1.267  800511991  0.000e+00
    15.6374   0.001072      1.140  800512001  0.000e+00
    15.6301   0.001066      1.139  800512011  0.000e+00
    15.6085   0.001063      1.222  800512021  0.000e+00
    15.5933   0.001060      1.199  800512031  0.000e+00
    15.5710   0.001058      1.179  800512041  0.000e+00
    15.5527   0.001055      1.179  800512051  0.000e+00
    15.5453   0.001052      1.283  800512061  0.000e+00
    15.5307   0.001049      1.177  800512071  0.000e+00
    15.5360   0.001049      1.156  800512081  0.000e+00
    15.5254   0.001047      1.177  800512091  0.000e+00
    15.5122   0.001041      1.154  800512101  0.000e+00
    15.5058   0.001038      1.135  800512111  0.000e+00
    15.4844   0.001035      1.133  800512121  0.000e+00
    15.5010   0.001033      1.154  800512131  0.000e+00
    15.5020   0.001033      0.987  800512141  0.000e+00
    15.5115   0.001033      1.132  800512151  0.000e+00
    15.5001   0.001030      1.173  800512161  0.000e+00
    15.4852   0.001030      1.027  800512171  0.000e+00
    15.4900   0.001027      1.151  800512181  0.000e+00
    15.5039   0.001027      1.232  800512191  0.000e+00
    15.4725   0.001024      1.109  800512201  0.000e+00
    15.4831   0.001024      1.170  800512211  0.000e+00
    15.4865   0.001024      1.066  800512221  0.000e+00
    15.4816   0.001021      1.107  800512231  0.000e+00
    15.4760   0.001019      1.149  800512241  0.000e+00
    15.4679   0.001019      1.126  800512251  0.000e+00
    15.4702   0.001019      1.126  800512261  0.000e+00
    15.4617   0.001016      1.147  800512271  0.000e+00
    15.4439   0.001016      1.189  800512281  0.000e+00
    15.4222   0.001013      1.062  800512291  0.000e+00
    15.4139   0.001013      1.062  800512301  0.000e+00
    15.4055   0.001013      1.166  800512311  0.000e+00
    15.3902   0.001010      1.166  800512321  0.000e+00
    15.3848   0.001010      1.102  800512331  0.000e+00
    15.3605   0.001008      1.166  800512341  0.000e+00
    15.3522   0.001008      1.123  800512351  0.000e+00
    15.3384   0.001002      1.037  800512361  0.000e+00
    15.3428   0.001002      1.121  800512371  0.000e+00
    15.3152   0.001002      1.100  800512381  0.000e+00
    15.3102   0.000999      1.037  800512391  0.000e+00
    15.3083   0.000999      1.121  800512401  0.000e+00
    15.3050   0.000997      1.142  800512411  0.000e+00
    15.2988   0.000994      1.183  800512421  0.000e+00
    15.2889   0.000994      1.221  800512431  0.000e+00
    15.2820   0.000997      1.054  800512441  0.000e+00
    15.2746   0.000997      1.140  800512451  0.000e+00
    15.2634   0.000991      1.179  800512461  0.000e+00
    15.2496   0.000988      1.096  800512471  0.000e+00
    15.2369   0.000991      1.263  800512481  0.000e+00
    15.2286   0.000988      0.971  800512491  0.000e+00
    15.2213   0.000988      1.117  800512501  0.000e+00
    15.2154   0.000985      1.094  800512511  0.000e+00
    15.1623   0.000986      1.115  800512521  0.000e+00
    15.1342   0.000983      1.032  800512531  0.000e+00
    15.0753   0.000977      1.157  800512541  0.000e+00
    15.0618   0.000977      1.009  800512551  0.000e+00
    15.0531   0.000977      1.176  800512561  0.000e+00
    15.0592   0.000977      1.113  800512571  0.000e+00
    15.0792   0.000977      1.132  800512581  0.000e+00
    15.0933   0.000974      1.009  800512591  0.000e+00
    15.0945   0.000974      1.028  800512601  0.000e+00
    15.0867   0.000974      1.046  800512611  0.000e+00
    12.7639   0.001010      1.672  800512621  0.000e+00
    12.5677   1.345577      2.047  800512631  0.000e+00
    12.3581   4.060689      4.904  800512641  0.000e+00
    12.3519   4.092116      8.135  800512651  0.000e+00
    12.3482   4.087117     11.782  800512661  0.000e+00
    12.3585   4.083364     12.031  800512671  0.000e+00
    12.3490   4.081087     11.983  800512681  0.000e+00
    12.3432   4.028056      9.163  800512691  0.000e+00
    12.3443   3.649173      5.342  800512701  0.000e+00
    12.3441   3.279406      2.671  800512711  0.000e+00
    12.3444   3.998411      2.769  800512721  0.000e+00
    12.3432   4.077290      2.993  800512731  0.000e+00
    12.3435   4.066480      5.656  800512741  0.000e+00
    12.3437   4.077343     10.218  800512751  0.000e+00
    12.3415   4.077352     15.242  800512761  0.000e+00
    12.2278   4.067662     20.010  800512771  0.000e+00
    12.1136   4.056789     24.656  800512781  0.000e+00
    11.9846   4.044901     29.343  800512791  0.000e+00
    11.7122   4.020978     36.158  800512801  0.000e+00
    11.3999   3.991602     42.935  800512811  0.000e+00
    11.3243   3.984764     49.914  800512821  0.000e+00
    11.3328   3.985017     56.795  800512831  0.000e+00
    11.3253   3.984600     63.504  800512841  0.000e+00
    11.3304   3.985304     70.344  800512851  0.000e+00
    11.3154   3.984079     77.553  800512861  0.000e+00
    11.3007   3.983193     85.479  800512871  0.000e+00
    11.3080   3.984330     93.774  800512881  0.000e+00
    11.2941   3.983607    102.177  800512891  0.000e+00
    11.2092   3.974753    107.724  800512901  0.000e+00
    11.1072   3.964338    115.623  800512911  0.000e+00
    11.1626   3.970588    126.072  800512921  0.000e+00
    11.1299   3.957042    136.921  800512931  0.000e+00
    11.1067   3.965788    147.685  800512941  0.000e+00
    11.0536   3.960887    157.133  800512951  0.000e+00
    10.9986   3.955850    166.604  800512961  0.000e+00
    10.9703   3.953275    176.078  800512971  0.000e+00
    10.9096   3.947681    186.071  800512981  0.000e+00
    10.8564   3.942327    196.131  800512991  0.000e+00
    10.8162   3.938809    206.396  800513001  0.000e+00
    10.7953   3.937473    216.558  800513011  0.000e+00
    10.7654   3.934642    226.853  800513021  0.000e+00
    10.7514   3.933736    236.620  800513031  0.000e+00
    10.6718   3.926229    247.096  800513041  0.000e+00
    10.5882   3.918331    257.306  800513051  0.000e+00
    10.4824   3.907008    267.600  800513061  0.000e+00
    10.2468   3.882230    277.724  800513071  0.000e+00
    10.2012   3.876874    287.305  800513081  0.000e+00
    10.2140   3.878650    297.455  800513091  0.000e+00
    10.0558   3.863643    307.710  800513101  0.000e+00
    10.0240   3.860401    317.986  800513111  0.000e+00
    10.2047   3.880061    327.987  800513121  0.000e+00
    10.1917   3.880288    338.056  800513131  0.000e+00
    10.2245   3.884754    348.351  800513141  0.000e+00
    10.1922   3.882725    358.714  800513151  0.000e+00
    10.0544   3.869018    368.738  800513161  0.000e+00
     9.9927   3.863275    378.768  800513171  0.000e+00
     9.9685   3.860836    389.028  800513181  0.000e+00
     9.9350   3.857755    399.033  800513191  0.000e+00
     9.9050   3.855293    408.965  800513201  0.000e+00
     9.8499   3.850916    418.913  800513211  0.000e+00
     9.7574   3.842560    428.753  800513221  0.000e+00
     9.7178   3.838887    438.828  800513231  0.000e+00
     9.6681   3.834333    448.883  800513241  0.000e+00
     9.6480   3.832111    458.917  800513251  0.000e+00
     9.6164   3.829291    469.015  800513261  0.000e+00
     9.5909   3.826812    479.025  800513271  0.000e+00
     9.5499   3.823403    488.962  800513281  0.000e+00
     9.4754   3.816487    499.371  800513291  0.000e+00
     9.4541   3.814453    509.183  800513301  0.000e+00
     9.2986   3.799836    519.426  800513311  0.000e+00
     9.1918   3.789082    529.763  800513321  0.000e+00
     9.1152   3.781786    539.651  800513331  0.000e+00
     9.0345   3.773889    549.712  800513341  0.000e+00
     8.9178   3.762736    559.795  800513351  0.000e+00
     8.8315   3.754152    570.067  800513361  0.000e+00
     8.7775   3.748765    580.360  800513371  0.000e+00
     8.6573   3.738435    590.335  800513381  0.000e+00
     8.5660   3.730105    599.897  800513391  0.000e+00
     8.5206   3.726572    609.857  800513401  0.000e+00
     8.4232   3.718277    619.881  800513411  0.000e+00
     8.3698   3.713130    630.199  800513421  0.000e+00
     8.3043   3.707218    640.323  800513431  0.000e+00
     8.2100   3.698679    650.035  800513441  0.000e+00
     8.1426   3.693245    659.935  800513451  0.000e+00
     8.0774   3.686363    670.109  800513461  0.000e+00
     7.9851   3.677703    680.319  800513471  0.000e+00
     7.6003   3.640247    690.306  800513481  0.000e+00
     7.6233   3.640648    700.035  800513491  0.000e+00
