* Sea-Bird SBE37SMP-RS232  Data File:
* FileName = C:\CE25007_recovery_data\23829_cal_dip_data.hex
* Software version SeatermV2 2.8.0.119
* Temperature SN = 23829
* Conductivity SN = 23829
* System UpLoad Time = May 14 2025 09:25:46
* sample interval = 10 seconds
* <ApplicationData>
* <Seaterm232>
* <SoftwareVersion>2.8.0.119</SoftwareVersion>
* <BuildDate>07-Nov-2018</BuildDate>
* </Seaterm232>
* </ApplicationData>
* <InstrumentState>
* <HardwareData DeviceType='SBE37SMP-RS232' SerialNumber='03723829'>
*
*    <Manufacturer>Sea-Bird Scientific</Manufacturer>
*
*    <FirmwareVersion>6.2.0</FirmwareVersion>
*
*    <FirmwareDate>May  1 2019 13:15:54</FirmwareDate>
*
*    <CommandSetVersion>1.3</CommandSetVersion>
*
*    <PCBAssembly SerialNum='252744' AssemblyNum='41661E'/>
*
*    <PCBAssembly SerialNum='252164' AssemblyNum='41783S'/>
*
*    <PCBAssembly SerialNum='252184' AssemblyNum='41785C'/>
*
*    <MfgDate>29Nov2021</MfgDate>
*
*    <FirmwareLoader>SBE 37-232-V3 FirmwareLoader V 1.0</FirmwareLoader>
*
*    <InternalSensors>
*
*       <Sensor id='Temperature'>
*
*          <type>temperature-1</type>
*
*          <SerialNumber>03723829</SerialNumber>
*
*       </Sensor>
*
*       <Sensor id='Conductivity'>
*
*          <type>conductivity-1</type>
*
*          <SerialNumber>03723829</SerialNumber>
*
*       </Sensor>
*
*       <Sensor id='Pressure'>
*
*          <type>strain-0</type>
*
*          <SerialNumber>5829995</SerialNumber>
*
*       </Sensor>
*
*    </InternalSensors>
*
* </HardwareData>
* <StatusData DeviceType='SBE37SMP-RS232' SerialNumber='03723829'>
*
*    <DateTime>2025-05-14T09:23:28</DateTime>
*
*    <EventSummary numEvents='12'/>
*
*    <Power>
*
*       <vMain>13.31</vMain>
*
*       <vLith> 3.00</vLith>
*
*    </Power>
*
*    <MemorySummary>
*
*       <Bytes>715215</Bytes>
*
*       <Samples>47681</Samples>
*
*       <SamplesFree>511559</SamplesFree>
*
*       <SampleLength>15</SampleLength>
*
*    </MemorySummary>
*
*    <AutonomousSampling>no, stop command</AutonomousSampling>
*
* </StatusData>
* <ConfigurationData DeviceType='SBE37SMP-RS232' SerialNumber='03723829'>
*
*    <PressureInstalled>yes</PressureInstalled>
*
*    <SampleDataFormat>not set</SampleDataFormat>
*
*    <TemperatureUnits>Celsius</TemperatureUnits>
*
*    <ConductivityUnits>S/m</ConductivityUnits>
*
*    <PressureUnits>Decibar</PressureUnits>
*
*    <OutputTemperature>yes</OutputTemperature>
*
*    <OutputConductivity>yes</OutputConductivity>
*
*    <OutputPressure>yes</OutputPressure>
*
*    <OutputSalinity>yes</OutputSalinity>
*
*    <OutputSV>no</OutputSV>
*
*    <OutputSC>no</OutputSC>
*
*    <SCCoeff>0.0200</SCCoeff>
*
*    <TxSampleNumber>no</TxSampleNumber>
*
*    <SampleInterval>10</SampleInterval>
*
*    <TxRealTime>no</TxRealTime>
*
*    <SyncMode>no</SyncMode>
*
*    <MinCondFreq>3300.0</MinCondFreq>
*
*    <LegacyMode>no</LegacyMode>
*
*    <CompatibleMode>no</CompatibleMode>
*
* </ConfigurationData>
* <CalibrationCoefficients DeviceType='SBE37SMP-RS232' SerialNumber='03723829'>
*
*    <Calibration format='TEMP1' id='Temperature'>
*
*       <SerialNum>03723829</SerialNum>
*
*       <CalDate>26-Mar-24</CalDate>
*
*       <A0>-1.320107e-04</A0>
*
*       <A1>3.009820e-04</A1>
*
*       <A2>-3.567100e-06</A2>
*
*       <A3>1.789618e-07</A3>
*
*    </Calibration>
*
*    <Calibration format='WBCOND0' id='Conductivity'>
*
*       <SerialNum>03723829</SerialNum>
*
*       <CalDate>26-Mar-24</CalDate>
*
*       <G>-1.050094e+00</G>
*
*       <H>1.612135e-01</H>
*
*       <I>-5.090219e-04</I>
*
*       <J>6.448324e-05</J>
*
*       <PCOR>-9.570000e-08</PCOR>
*
*       <TCOR>3.250000e-06</TCOR>
*
*       <WBOTC>-6.512013e-08</WBOTC>
*
*    </Calibration>
*
*    <Calibration format='STRAIN0' id='Pressure'>
*
*       <SerialNum>5829995</SerialNum>
*
*       <CalDate>20-Mar-24</CalDate>
*
*       <PA0>-2.229331e+00</PA0>
*
*       <PA1>3.093096e-02</PA1>
*
*       <PA2>2.353794e-09</PA2>
*
*       <PTCA0>5.249061e+05</PTCA0>
*
*       <PTCA1>-7.719842e+00</PTCA1>
*
*       <PTCA2>1.967115e-01</PTCA2>
*
*       <PTCB0>9.984085e+01</PTCB0>
*
*       <PTCB1>-1.631755e-03</PTCB1>
*
*       <PTCB2>0.000000e+00</PTCB2>
*
*       <PTEMPA0>-9.535363e+01</PTEMPA0>
*
*       <PTEMPA1>3.818051e-02</PTEMPA1>
*
*       <PTEMPA2>1.345220e-06</PTEMPA2>
*
*       <POFFSET>0.000000e+00</POFFSET>
*
*       <PRANGE>1.015300e+04</PRANGE>
*
*    </Calibration>
*
* </CalibrationCoefficients>
* <EventCounters DeviceType='SBE37SMP-RS232' SerialNumber='03723829'>
*
*    <EventSummary numEvents='12'/>
*
*    <Event type='PON reset' count='10'/>
*
*    <Event type='LoggingRestartPON' count='2'/>
*
* </EventCounters></InstrumentState>
# nquan = 5
# nvalues = 1561                                  
# units = specified
# name 0 = tv290C: Temperature [ITS-90, deg C]
# name 1 = cond0S/m: Conductivity [S/m]
# name 2 = prdM: Pressure, Strain Gauge [db]
# name 3 = timeK: Time, Instrument [seconds]
# name 4 = flag:  0.000e+00
# span 0 =   -99.0000,   656.8541                 
# span 1 = -99.000000, 212.096382                 
# span 2 = -70064.104, 465929.789                 
# span 3 =          0, 4294967295                 
# span 4 = 0.0000e+00, 0.0000e+00                 
# interval = seconds: 10
# start_time = May 14 2025 04:15:01 [Instrument's time stamp, first data scan]
# bad_flag = -9.990e-29
# <Sensors count="3" >
#   <sensor Channel="1" >
#     <!-- Count, Temperature -->
#     <TemperatureSensor SensorID="58" >
#       <SerialNumber>23829</SerialNumber>
#       <CalibrationDate>26-Mar-24</CalibrationDate>
#       <A0>-1.32010700e-004</A0>
#       <A1>3.00982000e-004</A1>
#       <A2>-3.56710000e-006</A2>
#       <A3>1.78961800e-007</A3>
#       <Slope>1.00000000</Slope>
#       <Offset>0.0000</Offset>
#     </TemperatureSensor>
#   </sensor>
#   <sensor Channel="2" >
#     <!-- Frequency 0, Conductivity -->
#     <ConductivitySensor SensorID="3" >
#       <SerialNumber>23829</SerialNumber>
#       <CalibrationDate>26-Mar-24</CalibrationDate>
#       <UseG_J>1</UseG_J>
#       <!-- Cell const and series R are applicable only for wide range sensors. -->
#       <SeriesR>0.0000</SeriesR>
#       <CellConst>2000.0000</CellConst>
#       <ConductivityType>1</ConductivityType>
#       <Coefficients equation="0" >
#         <A>0.00000000e+000</A>
#         <B>0.00000000e+000</B>
#         <C>0.00000000e+000</C>
#         <D>0.00000000e+000</D>
#         <M>0.0</M>
#         <CPcor>-9.57000000e-008</CPcor>
#       </Coefficients>
#       <Coefficients equation="1" >
#         <G>-1.05009400e+000</G>
#         <H>1.61213500e-001</H>
#         <I>-5.09021900e-004</I>
#         <J>6.44832400e-005</J>
#         <CPcor>-9.57000000e-008</CPcor>
#         <CTcor>3.2500e-006</CTcor>
#         <!-- WBOTC not applicable unless ConductivityType = 1. -->
#         <WBOTC>-6.51201300e-008</WBOTC>
#       </Coefficients>
#       <Slope>1.00000000</Slope>
#       <Offset>0.00000</Offset>
#     </ConductivitySensor>
#   </sensor>
#   <sensor Channel="3" >
#     <!-- Count, Pressure, Strain Gauge -->
#     <PressureSensor SensorID="46" >
#       <SerialNumber>5829995</SerialNumber>
#       <CalibrationDate>20-Mar-24</CalibrationDate>
#       <PA0>-2.22933100e+000</PA0>
#       <PA1>3.09309600e-002</PA1>
#       <PA2>2.35379400e-009</PA2>
#       <PTEMPA0>-9.53536300e+001</PTEMPA0>
#       <PTEMPA1>3.81805100e-002</PTEMPA1>
#       <PTEMPA2>1.34522000e-006</PTEMPA2>
#       <PTCA0>5.24906100e+005</PTCA0>
#       <PTCA1>-7.71984200e+000</PTCA1>
#       <PTCA2>1.96711500e-001</PTCA2>
#       <PTCB0>9.98408500e+001</PTCB0>
#       <PTCB1>-1.63175500e-003</PTCB1>
#       <PTCB2>0.00000000e+000</PTCB2>
#       <Offset>0.000000</Offset>
#     </PressureSensor>
#   </sensor>
# </Sensors>
# datcnv_date = May 19 2025 07:53:42, 7.26.7.129 [datcnv_vars = 4]
# datcnv_in = C:\CE25007_recovery_data\23829_cal_dip_data.hex C:\CE25007_recovery_data\23829_cal_dip_data.xmlcon
# datcnv_skipover = 0
# file_type = ascii
*END*
    15.3734   0.000029      0.429  800511301  0.000e+00
    15.3759   0.000026      0.429  800511311  0.000e+00
    15.3621   0.000023      0.429  800511321  0.000e+00
    15.3660   0.000023      0.448  800511331  0.000e+00
    15.3722   0.000023      0.429  800511341  0.000e+00
    15.3714   0.000023      0.448  800511351  0.000e+00
    15.3706   0.000023      0.427  800511361  0.000e+00
    15.3644   0.000023      0.427  800511371  0.000e+00
    15.3560   0.000023      0.448  800511381  0.000e+00
    15.3514   0.000023      0.448  800511391  0.000e+00
    15.3510   0.000023      0.427  800511401  0.000e+00
    15.3562   0.000023      0.448  800511411  0.000e+00
    15.3592   0.000023      0.427  800511421  0.000e+00
    15.3618   0.000023      0.426  800511431  0.000e+00
    15.3656   0.000017      0.447  800511441  0.000e+00
    15.3622   0.000023      0.426  800511451  0.000e+00
    15.3645   0.000023      0.426  800511461  0.000e+00
    15.3614   0.000023      0.404  800511471  0.000e+00
    15.3704   0.000023      0.447  800511481  0.000e+00
    15.3716   0.000023      0.404  800511491  0.000e+00
    15.3665   0.000020      0.424  800511501  0.000e+00
    15.3711   0.000020      0.424  800511511  0.000e+00
    15.3718   0.000023      0.447  800511521  0.000e+00
    15.3796   0.000023      0.446  800511531  0.000e+00
    15.3799   0.000023      0.446  800511541  0.000e+00
    15.3784   0.000023      0.424  800511551  0.000e+00
    15.3791   0.000023      0.424  800511561  0.000e+00
    15.3838   0.000023      0.403  800511571  0.000e+00
    15.3876   0.000020      0.403  800511581  0.000e+00
    15.3887   0.000023      0.424  800511591  0.000e+00
    15.3895   0.000023      0.423  800511601  0.000e+00
    15.3841   0.000023      0.446  800511611  0.000e+00
    15.3850   0.000023      0.444  800511621  0.000e+00
    15.3882   0.000023      0.446  800511631  0.000e+00
    15.3900   0.000020      0.467  800511641  0.000e+00
    15.3943   0.000023      0.402  800511651  0.000e+00
    15.3981   0.000023      0.444  800511661  0.000e+00
    15.3951   0.000023      0.444  800511671  0.000e+00
    15.4051   0.000023      0.444  800511681  0.000e+00
    15.4048   0.000023      0.423  800511691  0.000e+00
    15.4060   0.000023      0.423  800511701  0.000e+00
    15.4033   0.000023      0.423  800511711  0.000e+00
    15.4005   0.000023      0.466  800511721  0.000e+00
    15.4014   0.000023      0.444  800511731  0.000e+00
    15.4043   0.000023      0.444  800511741  0.000e+00
    15.3994   0.000023      0.464  800511751  0.000e+00
    15.3899   0.000023      0.422  800511761  0.000e+00
    15.3916   0.000023      0.422  800511771  0.000e+00
    15.3994   0.000020      0.423  800511781  0.000e+00
    15.4025   0.000023      0.443  800511791  0.000e+00
    15.4058   0.000020      0.420  800511801  0.000e+00
    15.4040   0.000020      0.464  800511811  0.000e+00
    15.4076   0.000023      0.443  800511821  0.000e+00
    15.4049   0.000023      0.443  800511831  0.000e+00
    15.4051   0.000023      0.466  800511841  0.000e+00
    15.4052   0.000023      0.422  800511851  0.000e+00
    15.4056   0.000023      0.463  800511861  0.000e+00
    15.4013   0.000023      0.443  800511871  0.000e+00
    15.3963   0.000023      0.463  800511881  0.000e+00
    15.3992   0.000020      0.443  800511891  0.000e+00
    15.3972   0.000023      0.463  800511901  0.000e+00
    15.4078   0.000023      0.484  800511911  0.000e+00
    15.4096   0.000023      0.442  800511921  0.000e+00
    15.4160   0.000023      0.463  800511931  0.000e+00
    15.4228   0.000020      0.463  800511941  0.000e+00
    15.4241   0.000023      0.463  800511951  0.000e+00
    15.4254   0.000023      0.506  800511961  0.000e+00
    15.4298   0.000023      0.420  800511971  0.000e+00
    15.4243   0.000023      0.484  800511981  0.000e+00
    15.4290   0.000020      0.461  800511991  0.000e+00
    15.4306   0.000023      0.463  800512001  0.000e+00
    15.4290   0.000020      0.463  800512011  0.000e+00
    15.4309   0.000023      0.442  800512021  0.000e+00
    15.4333   0.000020      0.463  800512031  0.000e+00
    15.4353   0.000023      0.442  800512041  0.000e+00
    15.4368   0.000023      0.440  800512051  0.000e+00
    15.4306   0.000023      0.463  800512061  0.000e+00
    15.4288   0.000023      0.463  800512071  0.000e+00
    15.4228   0.000023      0.463  800512081  0.000e+00
    15.4300   0.000020      0.463  800512091  0.000e+00
    15.4409   0.000023      0.504  800512101  0.000e+00
    15.4420   0.000020      0.463  800512111  0.000e+00
    15.4453   0.000020      0.463  800512121  0.000e+00
    15.4437   0.000023      0.463  800512131  0.000e+00
    15.4482   0.000020      0.461  800512141  0.000e+00
    15.4514   0.000020      0.463  800512151  0.000e+00
    15.4445   0.000023      0.463  800512161  0.000e+00
    15.4435   0.000023      0.463  800512171  0.000e+00
    15.4506   0.000023      0.419  800512181  0.000e+00
    15.4483   0.000023      0.461  800512191  0.000e+00
    15.4488   0.000023      0.440  800512201  0.000e+00
    15.4530   0.000023      0.483  800512211  0.000e+00
    15.4484   0.000023      0.440  800512221  0.000e+00
    15.4482   0.000023      0.461  800512231  0.000e+00
    15.4470   0.000023      0.481  800512241  0.000e+00
    15.4497   0.000023      0.461  800512251  0.000e+00
    15.4442   0.000023      0.483  800512261  0.000e+00
    15.4420   0.000023      0.440  800512271  0.000e+00
    15.4444   0.000023      0.461  800512281  0.000e+00
    15.4453   0.000023      0.419  800512291  0.000e+00
    15.4463   0.000023      0.483  800512301  0.000e+00
    15.4471   0.000023      0.461  800512311  0.000e+00
    15.4384   0.000023      0.439  800512321  0.000e+00
    15.4366   0.000023      0.460  800512331  0.000e+00
    15.4315   0.000020      0.483  800512341  0.000e+00
    15.4270   0.000020      0.396  800512351  0.000e+00
    15.4261   0.000020      0.440  800512361  0.000e+00
    15.4304   0.000023      0.460  800512371  0.000e+00
    15.4310   0.000023      0.481  800512381  0.000e+00
    15.4292   0.000023      0.461  800512391  0.000e+00
    15.4330   0.000023      0.437  800512401  0.000e+00
    15.4369   0.000023      0.504  800512411  0.000e+00
    15.4380   0.000020      0.461  800512421  0.000e+00
    15.4322   0.000023      0.524  800512431  0.000e+00
    15.4353   0.000023      0.481  800512441  0.000e+00
    15.4359   0.000023      0.460  800512451  0.000e+00
    15.4330   0.000029      0.483  800512461  0.000e+00
    15.4274   0.000023      0.461  800512471  0.000e+00
    15.4208   0.000023      0.481  800512481  0.000e+00
    15.4257   0.000023      0.460  800512491  0.000e+00
    15.4294   0.000023      0.458  800512501  0.000e+00
    15.4199   0.000020      0.481  800512511  0.000e+00
    15.4243   0.000023      0.481  800512521  0.000e+00
    15.4205   0.000023      0.480  800512531  0.000e+00
    15.4123   0.000023      0.481  800512541  0.000e+00
    15.4154   0.000023      0.460  800512551  0.000e+00
    15.4134   0.000023      0.503  800512561  0.000e+00
    15.2934   0.000020      0.480  800512571  0.000e+00
    15.0728   0.000023      0.460  800512581  0.000e+00
    14.8816   0.000023      0.458  800512591  0.000e+00
    14.6694   0.000023      0.522  800512601  0.000e+00
    14.0384   0.000020      1.185  800512611  0.000e+00
    12.7288  -0.000031      1.205  800512621  0.000e+00
    12.4583   0.682165      3.915  800512631  0.000e+00
    12.3914   2.099459      7.051  800512641  0.000e+00
    12.3533   4.095431     10.441  800512651  0.000e+00
    12.3548   3.979629     10.760  800512661  0.000e+00
    12.3624   3.989487     10.927  800512671  0.000e+00
    12.3435   3.791477      8.131  800512681  0.000e+00
    12.3449   3.420093      4.181  800512691  0.000e+00
    12.3431   3.332173      1.554  800512701  0.000e+00
    12.3453   3.814393      1.339  800512711  0.000e+00
    12.3437   3.803999      1.526  800512721  0.000e+00
    12.3439   4.046250      4.148  800512731  0.000e+00
    12.3451   4.077576      8.689  800512741  0.000e+00
    12.3448   4.077621     13.677  800512751  0.000e+00
    12.2566   4.069896     18.602  800512761  0.000e+00
    12.1267   4.057782     23.250  800512771  0.000e+00
    12.0037   4.046434     28.004  800512781  0.000e+00
    11.7730   4.024399     34.830  800512791  0.000e+00
    11.3821   3.989822     41.567  800512801  0.000e+00
    11.3208   3.983525     48.586  800512811  0.000e+00
    11.3286   3.984225     55.304  800512821  0.000e+00
    11.3293   3.984439     62.132  800512831  0.000e+00
    11.3271   3.984773     69.041  800512841  0.000e+00
    11.3192   3.984099     76.253  800512851  0.000e+00
    11.3005   3.982750     84.037  800512861  0.000e+00
    11.3083   3.984120     92.466  800512871  0.000e+00
    11.2991   3.983587    100.958  800512881  0.000e+00
    11.2249   3.975879    106.696  800512891  0.000e+00
    11.1232   3.965476    114.252  800512901  0.000e+00
    11.1585   3.969623    124.939  800512911  0.000e+00
    11.1331   3.967524    135.722  800512921  0.000e+00
    11.1122   3.965847    146.586  800512931  0.000e+00
    11.0490   3.960191    156.106  800512941  0.000e+00
    11.0044   3.955846    165.543  800512951  0.000e+00
    10.9738   3.953061    174.957  800512961  0.000e+00
    10.9285   3.948585    184.970  800512971  0.000e+00
    10.8564   3.941971    195.071  800512981  0.000e+00
    10.8190   3.938721    205.512  800512991  0.000e+00
    10.7947   3.936789    215.444  800513001  0.000e+00
    10.7643   3.934122    225.844  800513011  0.000e+00
    10.7503   3.933383    235.862  800513021  0.000e+00
    10.6710   3.925547    246.138  800513031  0.000e+00
    10.6031   3.918928    256.454  800513041  0.000e+00
    10.4893   3.906993    266.710  800513051  0.000e+00
    10.2516   3.882464    276.921  800513061  0.000e+00
    10.1966   3.876000    286.515  800513071  0.000e+00
    10.2177   3.878603    296.773  800513081  0.000e+00
    10.0590   3.863369    306.962  800513091  0.000e+00
    10.0059   3.857877    317.221  800513101  0.000e+00
    10.2061   3.879897    327.267  800513111  0.000e+00
    10.1989   3.880682    337.332  800513121  0.000e+00
    10.2333   3.885518    347.529  800513131  0.000e+00
    10.1923   3.882349    358.091  800513141  0.000e+00
    10.0424   3.867040    368.115  800513151  0.000e+00
     9.9885   3.862053    378.125  800513161  0.000e+00
     9.9729   3.860554    388.343  800513171  0.000e+00
     9.9347   3.856941    398.415  800513181  0.000e+00
     9.8936   3.853803    408.528  800513191  0.000e+00
     9.8217   3.847371    418.259  800513201  0.000e+00
     9.7496   3.840937    428.226  800513211  0.000e+00
     9.7202   3.838247    438.341  800513221  0.000e+00
     9.6633   3.832797    448.352  800513231  0.000e+00
     9.6450   3.831241    458.514  800513241  0.000e+00
     9.6136   3.828353    468.484  800513251  0.000e+00
     9.5818   3.825563    478.537  800513261  0.000e+00
     9.5384   3.821679    488.555  800513271  0.000e+00
     9.4756   3.815913    498.994  800513281  0.000e+00
     9.4471   3.813216    508.796  800513291  0.000e+00
     9.3089   3.799904    518.983  800513301  0.000e+00
     9.1953   3.788549    529.300  800513311  0.000e+00
     9.1177   3.781175    539.189  800513321  0.000e+00
     9.0295   3.772862    549.271  800513331  0.000e+00
     8.9254   3.762848    559.633  800513341  0.000e+00
     8.8272   3.753148    569.581  800513351  0.000e+00
     8.7936   3.749795    579.798  800513361  0.000e+00
     8.6731   3.739415    589.904  800513371  0.000e+00
     8.5620   3.729484    599.648  800513381  0.000e+00
     8.5126   3.725262    609.345  800513391  0.000e+00
     8.4230   3.717560    619.411  800513401  0.000e+00
     8.3730   3.712720    629.820  800513411  0.000e+00
     8.3034   3.706678    639.973  800513421  0.000e+00
     8.2067   3.697753    649.569  800513431  0.000e+00
