* Sea-Bird SBE37SM-RS232  Data File:
* FileName = C:\CE25007_recovery_data\9141_cal_dip_data.hex
* Software version SeatermV2 2.8.0.119
* Temperature SN = 9141
* Conductivity SN = 9141
* System UpLoad Time = May 14 2025 09:19:24
* sample interval = 10 seconds
* <ApplicationData>
* <Seaterm232>
* <SoftwareVersion>2.8.0.119</SoftwareVersion>
* <BuildDate>07-Nov-2018</BuildDate>
* </Seaterm232>
* </ApplicationData>
* <InstrumentState>
* <HardwareData DeviceType='SBE37SM-RS232' SerialNumber='03709141'>
*
*    <Manufacturer>Sea-Bird Electronics, Inc.</Manufacturer>
*
*    <FirmwareVersion>4.1</FirmwareVersion>
*
*    <FirmwareDate>Jan 17 2012 15:32:03</FirmwareDate>
*
*    <CommandSetVersion>1.0</CommandSetVersion>
*
*    <PCBAssembly>41720A</PCBAssembly>
*
*    <PCBSerialNum>32376</PCBSerialNum>
*
*    <PCBAssembly>41660B</PCBAssembly>
*
*    <PCBSerialNum>32811</PCBSerialNum>
*
*    <PCBAssembly>41661A</PCBAssembly>
*
*    <PCBSerialNum/>
*
*    <MfgDate>2 Aug 2011</MfgDate>
*
*    <FirmwareLoader>SBE 37-232-V3 FirmwareLoader V 1.0</FirmwareLoader>
*
*    <InternalSensors>
*
*       <Sensor id='Temperature'>
*
*          <type>temperature-1</type>
*
*          <SerialNumber>03709141</SerialNumber>
*
*       </Sensor>
*
*       <Sensor id='Conductivity'>
*
*          <type>conductivity-1</type>
*
*          <SerialNumber>03709141</SerialNumber>
*
*       </Sensor>
*
*       <Sensor id='Pressure'>
*
*          <type>strain-0</type>
*
*          <SerialNumber>3418766</SerialNumber>
*
*       </Sensor>
*
*    </InternalSensors>
*
* </HardwareData>
* <StatusData DeviceType='SBE37SM-RS232' SerialNumber='03709141'>
*
*    <DateTime>2025-05-14T09:18:05</DateTime>
*
*    <EventSummary numEvents='4'/>
*
*    <Power>
*
*       <vMain>13.47</vMain>
*
*       <vLith> 3.00</vLith>
*
*    </Power>
*
*    <MemorySummary>
*
*       <Bytes>715545</Bytes>
*
*       <Samples>47703</Samples>
*
*       <SamplesFree>511537</SamplesFree>
*
*       <SampleLength>15</SampleLength>
*
*    </MemorySummary>
*
*    <AutonomousSampling>no, stop command</AutonomousSampling>
*
* </StatusData>
* <ConfigurationData DeviceType='SBE37SM-RS232' SerialNumber='03709141'>
*
*    <PressureInstalled>yes</PressureInstalled>
*
*    <PumpInstalled>yes</PumpInstalled>
*
*    <MinCondFreq>3300.0</MinCondFreq>
*
*    <SampleDataFormat>converted engineering alternate</SampleDataFormat>
*
*    <OutputSalinity>no</OutputSalinity>
*
*    <OutputSV>no</OutputSV>
*
*    <TxRealTime>no</TxRealTime>
*
*    <SampleInterval>10</SampleInterval>
*
*    <SyncMode>no</SyncMode>
*
* </ConfigurationData>
* <CalibrationCoefficients DeviceType='SBE37SM-RS232' SerialNumber='03709141'>
*
*    <Calibration format='TEMP1' id='Temperature'>
*
*       <SerialNum>03709141</SerialNum>
*
*       <CalDate>09-Nov-23</CalDate>
*
*       <A0>-9.178809e-05</A0>
*
*       <A1>3.055781e-04</A1>
*
*       <A2>-4.398966e-06</A2>
*
*       <A3>1.983224e-07</A3>
*
*    </Calibration>
*
*    <Calibration format='WBCOND0' id='Conductivity'>
*
*       <SerialNum>03709141</SerialNum>
*
*       <CalDate>09-Nov-23</CalDate>
*
*       <G>-9.892907e-01</G>
*
*       <H>1.425887e-01</H>
*
*       <I>-1.763388e-04</I>
*
*       <J>3.284640e-05</J>
*
*       <PCOR>-9.570000e-08</PCOR>
*
*       <TCOR>3.250000e-06</TCOR>
*
*       <WBOTC>0.000000e+00</WBOTC>
*
*    </Calibration>
*
*    <Calibration format='STRAIN0' id='Pressure'>
*
*       <SerialNum>3418766</SerialNum>
*
*       <CalDate>03-Nov-23</CalDate>
*
*       <PA0>2.621221e-02</PA0>
*
*       <PA1>5.028681e-03</PA1>
*
*       <PA2>-5.855417e-11</PA2>
*
*       <PTCA0>5.234765e+05</PTCA0>
*
*       <PTCA1>6.832664e-01</PTCA1>
*
*       <PTCA2>-1.749772e-02</PTCA2>
*
*       <PTCB0>2.512150e+01</PTCB0>
*
*       <PTCB1>7.000000e-04</PTCB1>
*
*       <PTCB2>0.000000e+00</PTCB2>
*
*       <PTEMPA0>-7.257573e+01</PTEMPA0>
*
*       <PTEMPA1>4.989855e-02</PTEMPA1>
*
*       <PTEMPA2>-3.994605e-07</PTEMPA2>
*
*       <POFFSET>0.000000e+00</POFFSET>
*
*       <PRANGE>1.450000e+03</PRANGE>
*
*    </Calibration>
*
* </CalibrationCoefficients>
* <EventCounters DeviceType='SBE37SM-RS232' SerialNumber='03709141'>
*
*    <EventSummary numEvents='4'/>
*
*    <Event type='PON reset' count='4'/>
*
* </EventCounters></InstrumentState>
# nquan = 5
# nvalues = 1390                                  
# units = specified
# name 0 = tv290C: Temperature [ITS-90, deg C]
# name 1 = cond0S/m: Conductivity [S/m]
# name 2 = prdM: Pressure, Strain Gauge [db]
# name 3 = timeK: Time, Instrument [seconds]
# name 4 = flag:  0.000e+00
# span 0 =     2.8058,    15.7980                 
# span 1 =   0.008497,   4.095735                 
# span 2 =      0.019,   1799.199                 
# span 3 =  800511301,  800525191                 
# span 4 = 0.0000e+00, 0.0000e+00                 
# interval = seconds: 10
# start_time = May 14 2025 04:15:01 [Instrument's time stamp, first data scan]
# bad_flag = -9.990e-29
# <Sensors count="3" >
#   <sensor Channel="1" >
#     <!-- Count, Temperature -->
#     <TemperatureSensor SensorID="58" >
#       <SerialNumber>9141</SerialNumber>
#       <CalibrationDate>09-Nov-23</CalibrationDate>
#       <A0>-9.17880900e-005</A0>
#       <A1>3.05578100e-004</A1>
#       <A2>-4.39896600e-006</A2>
#       <A3>1.98322400e-007</A3>
#       <Slope>1.00000000</Slope>
#       <Offset>0.0000</Offset>
#     </TemperatureSensor>
#   </sensor>
#   <sensor Channel="2" >
#     <!-- Frequency 0, Conductivity -->
#     <ConductivitySensor SensorID="3" >
#       <SerialNumber>9141</SerialNumber>
#       <CalibrationDate>09-Nov-23</CalibrationDate>
#       <UseG_J>1</UseG_J>
#       <!-- Cell const and series R are applicable only for wide range sensors. -->
#       <SeriesR>0.0000</SeriesR>
#       <CellConst>2000.0000</CellConst>
#       <ConductivityType>1</ConductivityType>
#       <Coefficients equation="0" >
#         <A>0.00000000e+000</A>
#         <B>0.00000000e+000</B>
#         <C>0.00000000e+000</C>
#         <D>0.00000000e+000</D>
#         <M>0.0</M>
#         <CPcor>-9.57000000e-008</CPcor>
#       </Coefficients>
#       <Coefficients equation="1" >
#         <G>-9.89290700e-001</G>
#         <H>1.42588700e-001</H>
#         <I>-1.76338800e-004</I>
#         <J>3.28464000e-005</J>
#         <CPcor>-9.57000000e-008</CPcor>
#         <CTcor>3.2500e-006</CTcor>
#         <!-- WBOTC not applicable unless ConductivityType = 1. -->
#         <WBOTC>0.00000000e+000</WBOTC>
#       </Coefficients>
#       <Slope>1.00000000</Slope>
#       <Offset>0.00000</Offset>
#     </ConductivitySensor>
#   </sensor>
#   <sensor Channel="3" >
#     <!-- Count, Pressure, Strain Gauge -->
#     <PressureSensor SensorID="46" >
#       <SerialNumber>3418766</SerialNumber>
#       <CalibrationDate>03-Nov-23</CalibrationDate>
#       <PA0>2.62122100e-002</PA0>
#       <PA1>5.02868100e-003</PA1>
#       <PA2>-5.85541700e-011</PA2>
#       <PTEMPA0>-7.25757300e+001</PTEMPA0>
#       <PTEMPA1>4.98985500e-002</PTEMPA1>
#       <PTEMPA2>-3.99460500e-007</PTEMPA2>
#       <PTCA0>5.23476500e+005</PTCA0>
#       <PTCA1>6.83266400e-001</PTCA1>
#       <PTCA2>-1.74977200e-002</PTCA2>
#       <PTCB0>2.51215000e+001</PTCB0>
#       <PTCB1>7.00000000e-004</PTCB1>
#       <PTCB2>0.00000000e+000</PTCB2>
#       <Offset>0.000000</Offset>
#     </PressureSensor>
#   </sensor>
# </Sensors>
# datcnv_date = May 19 2025 07:54:14, 7.26.7.129 [datcnv_vars = 4]
# datcnv_in = C:\CE25007_recovery_data\9141_cal_dip_data.hex C:\CE25007_recovery_data\9141_cal_dip_data.xmlcon
# datcnv_skipover = 0
# file_type = ascii
*END*
    15.7905   0.008724      0.026  800511301  0.000e+00
    15.7980   0.008718      0.019  800511311  0.000e+00
    15.7968   0.008712      0.023  800511321  0.000e+00
    15.7947   0.008712      0.019  800511331  0.000e+00
    15.7950   0.008706      0.026  800511341  0.000e+00
    15.7906   0.008703      0.026  800511351  0.000e+00
    15.7865   0.008703      0.026  800511361  0.000e+00
    15.7849   0.008700      0.026  800511371  0.000e+00
    15.7804   0.008703      0.023  800511381  0.000e+00
    15.7621   0.008700      0.023  800511391  0.000e+00
    15.7498   0.008694      0.026  800511401  0.000e+00
    15.7546   0.008694      0.023  800511411  0.000e+00
    15.7557   0.008691      0.023  800511421  0.000e+00
    15.7536   0.008688      0.026  800511431  0.000e+00
    15.7490   0.008815      0.026  800511441  0.000e+00
    15.7438   0.008688      0.026  800511451  0.000e+00
    15.7442   0.008685      0.026  800511461  0.000e+00
    15.7487   0.008679      0.026  800511471  0.000e+00
    15.7459   0.008679      0.023  800511481  0.000e+00
    15.7425   0.008679      0.030  800511491  0.000e+00
    15.7337   0.008674      0.026  800511501  0.000e+00
    15.7343   0.008674      0.026  800511511  0.000e+00
    15.7318   0.008674      0.026  800511521  0.000e+00
    15.7299   0.008671      0.026  800511531  0.000e+00
    15.7316   0.008671      0.026  800511541  0.000e+00
    15.7324   0.008665      0.026  800511551  0.000e+00
    15.7284   0.008668      0.026  800511561  0.000e+00
    15.7269   0.008665      0.026  800511571  0.000e+00
    15.7242   0.008662      0.030  800511581  0.000e+00
    15.7186   0.008662      0.030  800511591  0.000e+00
    15.7215   0.008659      0.030  800511601  0.000e+00
    15.7178   0.008659      0.030  800511611  0.000e+00
    15.7172   0.008653      0.026  800511621  0.000e+00
    15.7190   0.008653      0.026  800511631  0.000e+00
    15.7161   0.008653      0.033  800511641  0.000e+00
    15.7114   0.008647      0.030  800511651  0.000e+00
    15.7034   0.008647      0.030  800511661  0.000e+00
    15.7102   0.008647      0.030  800511671  0.000e+00
    15.7151   0.008644      0.030  800511681  0.000e+00
    15.7157   0.008644      0.030  800511691  0.000e+00
    15.7135   0.008641      0.030  800511701  0.000e+00
    15.6975   0.008641      0.030  800511711  0.000e+00
    15.6915   0.008638      0.037  800511721  0.000e+00
    15.6890   0.008635      0.030  800511731  0.000e+00
    15.6856   0.008635      0.030  800511741  0.000e+00
    15.6840   0.008632      0.033  800511751  0.000e+00
    15.6947   0.008629      0.033  800511761  0.000e+00
    15.6823   0.008629      0.026  800511771  0.000e+00
    15.6728   0.008624      0.033  800511781  0.000e+00
    15.6590   0.008626      0.033  800511791  0.000e+00
    15.6592   0.008621      0.033  800511801  0.000e+00
    15.6542   0.008621      0.033  800511811  0.000e+00
    15.6569   0.008618      0.033  800511821  0.000e+00
    15.6467   0.008615      0.030  800511831  0.000e+00
    15.6488   0.008615      0.030  800511841  0.000e+00
    15.6505   0.008612      0.030  800511851  0.000e+00
    15.6509   0.008612      0.033  800511861  0.000e+00
    15.6522   0.008609      0.030  800511871  0.000e+00
    15.6539   0.008609      0.033  800511881  0.000e+00
    15.6568   0.008606      0.026  800511891  0.000e+00
    15.6389   0.008606      0.027  800511901  0.000e+00
    15.6425   0.008603      0.033  800511911  0.000e+00
    15.6404   0.008603      0.033  800511921  0.000e+00
    15.6399   0.008597      0.033  800511931  0.000e+00
    15.6255   0.008618      0.030  800511941  0.000e+00
    15.6221   0.008615      0.033  800511951  0.000e+00
    15.6251   0.008612      0.033  800511961  0.000e+00
    15.6279   0.008609      0.030  800511971  0.000e+00
    15.6255   0.008609      0.033  800511981  0.000e+00
    15.6266   0.008606      0.037  800511991  0.000e+00
    15.6231   0.008609      0.033  800512001  0.000e+00
    15.6129   0.008603      0.033  800512011  0.000e+00
    15.6141   0.008600      0.030  800512021  0.000e+00
    15.6157   0.008600      0.033  800512031  0.000e+00
    15.6080   0.008600      0.034  800512041  0.000e+00
    15.6060   0.008597      0.030  800512051  0.000e+00
    15.6039   0.008597      0.030  800512061  0.000e+00
    15.6040   0.008594      0.030  800512071  0.000e+00
    15.6042   0.008594      0.030  800512081  0.000e+00
    15.6079   0.008594      0.033  800512091  0.000e+00
    15.6107   0.008594      0.034  800512101  0.000e+00
    15.6154   0.008594      0.037  800512111  0.000e+00
    15.6176   0.008594      0.033  800512121  0.000e+00
    15.6138   0.008591      0.037  800512131  0.000e+00
    15.6291   0.008591      0.030  800512141  0.000e+00
    15.6651   0.008591      0.034  800512151  0.000e+00
    15.6736   0.008591      0.030  800512161  0.000e+00
    15.6779   0.008588      0.037  800512171  0.000e+00
    15.6736   0.008582      0.037  800512181  0.000e+00
    15.6701   0.008588      0.034  800512191  0.000e+00
    15.6669   0.008582      0.037  800512201  0.000e+00
    15.6641   0.008585      0.033  800512211  0.000e+00
    15.6392   0.008582      0.037  800512221  0.000e+00
    15.6233   0.008579      0.037  800512231  0.000e+00
    15.6224   0.008579      0.034  800512241  0.000e+00
    15.6246   0.008573      0.037  800512251  0.000e+00
    15.6222   0.008573      0.037  800512261  0.000e+00
    15.6208   0.008573      0.040  800512271  0.000e+00
    15.6212   0.008571      0.037  800512281  0.000e+00
    15.6150   0.008571      0.034  800512291  0.000e+00
    15.6042   0.008571      0.037  800512301  0.000e+00
    15.5940   0.008568      0.037  800512311  0.000e+00
    15.5965   0.008565      0.034  800512321  0.000e+00
    15.5780   0.008562      0.034  800512331  0.000e+00
    15.5788   0.008562      0.034  800512341  0.000e+00
    15.5831   0.008559      0.030  800512351  0.000e+00
    15.5779   0.008559      0.037  800512361  0.000e+00
    15.5695   0.008553      0.034  800512371  0.000e+00
    15.5567   0.008550      0.037  800512381  0.000e+00
    15.5557   0.008547      0.037  800512391  0.000e+00
    15.5456   0.008547      0.034  800512401  0.000e+00
    15.5452   0.008550      0.037  800512411  0.000e+00
    15.5149   0.008541      0.041  800512421  0.000e+00
    15.5080   0.008538      0.030  800512431  0.000e+00
    15.5050   0.008535      0.034  800512441  0.000e+00
    15.5003   0.008535      0.034  800512451  0.000e+00
    15.4940   0.008535      0.034  800512461  0.000e+00
    15.4897   0.008535      0.034  800512471  0.000e+00
    15.4939   0.008532      0.034  800512481  0.000e+00
    15.4974   0.008529      0.030  800512491  0.000e+00
    15.4916   0.008532      0.030  800512501  0.000e+00
    15.4925   0.008529      0.037  800512511  0.000e+00
    15.4626   0.008526      0.037  800512521  0.000e+00
    15.4638   0.008526      0.030  800512531  0.000e+00
    15.4492   0.008520      0.034  800512541  0.000e+00
    15.4420   0.008518      0.037  800512551  0.000e+00
    15.4396   0.008518      0.037  800512561  0.000e+00
    15.1872   0.008512      0.037  800512571  0.000e+00
    14.7791   0.008506      0.034  800512581  0.000e+00
    14.7999   0.008506      0.030  800512591  0.000e+00
    14.9819   0.008497      0.037  800512601  0.000e+00
    12.3816   3.563395      0.959  800512611  0.000e+00
    12.3899   4.095735      0.962  800512621  0.000e+00
    12.3683   4.046056      2.002  800512631  0.000e+00
    12.3614   4.085174      5.717  800512641  0.000e+00
    12.3505   4.079814      8.895  800512651  0.000e+00
    12.3481   4.080983     10.679  800512661  0.000e+00
    12.3467   4.073950     10.572  800512671  0.000e+00
    12.3453   4.079006      8.871  800512681  0.000e+00
    12.3453   4.078391      4.959  800512691  0.000e+00
    12.3418   4.077702      1.064  800512701  0.000e+00
    12.3438   4.077662      1.327  800512711  0.000e+00
    12.3440   4.077562      1.164  800512721  0.000e+00
    12.3438   4.077476      2.246  800512731  0.000e+00
    12.3449   4.029589      7.288  800512741  0.000e+00
    12.3453   4.077926     11.741  800512751  0.000e+00
    12.2882   4.072885     16.461  800512761  0.000e+00
    12.1408   4.058859     21.326  800512771  0.000e+00
    12.0135   4.003637     26.382  800512781  0.000e+00
    11.8551   4.031624     32.193  800512791  0.000e+00
    11.4358   3.992958     39.316  800512801  0.000e+00
    11.3404   3.984153     45.899  800512811  0.000e+00
    11.3275   3.983508     52.732  800512821  0.000e+00
    11.3345   3.984364     59.771  800512831  0.000e+00
    11.3235   3.984221     66.811  800512841  0.000e+00
    11.3287   3.985083     74.041  800512851  0.000e+00
    11.2892   3.981332     81.305  800512861  0.000e+00
    11.2947   3.982611     89.479  800512871  0.000e+00
    11.3088   3.984888     98.277  800512881  0.000e+00
    11.2331   3.976757    105.159  800512891  0.000e+00
    11.1506   3.968131    111.164  800512901  0.000e+00
    11.1174   3.965549    121.685  800512911  0.000e+00
    11.1293   3.967117    132.812  800512921  0.000e+00
    11.1248   3.967293    143.487  800512931  0.000e+00
    11.0558   3.960839    153.337  800512941  0.000e+00
    11.0163   3.957211    162.779  800512951  0.000e+00
    10.9785   3.953669    172.320  800512961  0.000e+00
    10.9483   3.950708    181.954  800512971  0.000e+00
    10.8617   3.942528    192.480  800512981  0.000e+00
    10.8319   3.939847    202.508  800512991  0.000e+00
    10.8039   3.937707    212.604  800513001  0.000e+00
    10.7655   3.934343    222.457  800513011  0.000e+00
    10.7522   3.933657    233.413  800513021  0.000e+00
    10.6914   3.927508    243.520  800513031  0.000e+00
    10.6127   3.919604    253.542  800513041  0.000e+00
    10.4942   3.907364    263.765  800513051  0.000e+00
    10.3020   3.886715    273.777  800513061  0.000e+00
    10.2036   3.876196    284.160  800513071  0.000e+00
    10.2303   3.879822    294.070  800513081  0.000e+00
    10.0936   3.866085    304.368  800513091  0.000e+00
     9.9736   3.853972    314.482  800513101  0.000e+00
    10.0728   3.864956    324.646  800513111  0.000e+00
    10.2143   3.882453    334.755  800513121  0.000e+00
    10.2213   3.884420    345.351  800513131  0.000e+00
    10.2191   3.885326    355.492  800513141  0.000e+00
    10.1288   3.876384    365.613  800513151  0.000e+00
     9.9945   3.862874    375.671  800513161  0.000e+00
     9.9735   3.860809    385.828  800513171  0.000e+00
     9.9502   3.858647    396.068  800513181  0.000e+00
     9.9040   3.854724    406.282  800513191  0.000e+00
     9.8743   3.852400    416.046  800513201  0.000e+00
     9.7810   3.843860    425.776  800513211  0.000e+00
     9.7291   3.839226    435.671  800513221  0.000e+00
     9.6857   3.835220    445.948  800513231  0.000e+00
     9.6484   3.831847    456.153  800513241  0.000e+00
     9.6182   3.829060    466.190  800513251  0.000e+00
     9.6040   3.827861    476.346  800513261  0.000e+00
     9.5545   3.823366    486.534  800513271  0.000e+00
     9.5010   3.818521    496.480  800513281  0.000e+00
     9.4600   3.814764    506.684  800513291  0.000e+00
     9.3634   3.805136    516.646  800513301  0.000e+00
     9.2279   3.792154    526.735  800513311  0.000e+00
     9.1628   3.785714    536.966  800513321  0.000e+00
     9.0483   3.774834    547.133  800513331  0.000e+00
     8.9686   3.766500    557.337  800513341  0.000e+00
     8.8359   3.753932    567.646  800513351  0.000e+00
     8.8186   3.752000    577.385  800513361  0.000e+00
     8.7142   3.742120    587.401  800513371  0.000e+00
     8.5834   3.730886    597.770  800513381  0.000e+00
     8.5223   3.726166    607.565  800513391  0.000e+00
     8.4711   3.721533    617.423  800513401  0.000e+00
     8.3927   3.714537    627.480  800513411  0.000e+00
     8.3298   3.708779    637.478  800513421  0.000e+00
     8.2106   3.697963    647.570  800513431  0.000e+00
     8.1765   3.694601    657.613  800513441  0.000e+00
     8.1091   3.688541    667.577  800513451  0.000e+00
     8.0135   3.679330    677.570  800513461  0.000e+00
     7.8955   3.668094    687.724  800513471  0.000e+00
     7.6113   3.639369    697.759  800513481  0.000e+00
     7.4313   3.620287    707.382  800513491  0.000e+00
     7.4233   3.619184    717.748  800513501  0.000e+00
     7.2893   3.606009    727.984  800513511  0.000e+00
